# Step     T (K)     E_KS (eV)    E_tot (eV)   Vol (A^3)    P (kBar)
     1  12691.94    -898.26073    -893.33905    1000.001       3.052
     2  12757.09    -898.30148    -893.35454    1000.001       4.253
     3  12287.12    -898.13405    -893.36936    1000.001       6.250
     4  11006.52    -897.62035    -893.35224    1000.001       8.484
     5   9574.40    -897.06309    -893.35033    1000.001       9.903
     6   8258.18    -896.59359    -893.39123    1000.001      10.869
     7   6846.00    -895.99791    -893.34316    1000.001      12.423
     8   7222.45    -896.18148    -893.38076    1000.001      11.560
     9   8689.32    -896.85932    -893.48977    1000.001       8.483
    10   8415.44    -896.70014    -893.43680    1000.001       6.361
    11   7030.99    -896.10887    -893.38239    1000.001       4.597
    12   5802.80    -895.59758    -893.34737    1000.001       2.910
    13   5090.33    -895.31426    -893.34033    1000.001       1.319
    14   4751.01    -895.18275    -893.34041    1000.001      -0.072
    15   4655.49    -895.15057    -893.34527    1000.001      -1.213
    16   4805.75    -895.22201    -893.35844    1000.001      -2.167
    17   5297.76    -895.43969    -893.38532    1000.001      -2.914
    18   6234.73    -895.81078    -893.39308    1000.001      -3.297
    19   7756.85    -896.39793    -893.38998    1000.001      -3.178
    20   9853.80    -897.24126    -893.42015    1000.001      -2.148
    21  11296.03    -897.90997    -893.52959    1000.001       0.876
    22   9068.45    -897.05698    -893.54042    1000.001       7.000
    23   7671.32    -896.17020    -893.19542    1000.001       8.988
    24  12013.71    -898.20264    -893.54396    1000.001       1.991
    25  13536.51    -898.67474    -893.42555    1000.001      -0.656
    26  12870.27    -898.36874    -893.37791    1000.001      -1.732
    27  11939.44    -898.00551    -893.37563    1000.001      -2.141
    28  11009.92    -897.65838    -893.38895    1000.001      -1.606
    29   9832.77    -897.18303    -893.37008    1000.001      -0.297
    30   9181.92    -896.85311    -893.29254    1000.001       0.457
    31  10343.51    -897.37334    -893.36233    1000.001      -0.963
    32  12151.81    -898.11751    -893.40528    1000.001      -2.752
    33  13335.00    -898.56035    -893.38930    1000.001      -3.371
    34  13995.42    -898.83618    -893.40904    1000.001      -2.590
    35  13020.39    -898.58104    -893.53199    1000.001       0.671
    36   8483.85    -896.60490    -893.31503    1000.001       6.375
    37   8364.79    -896.68651    -893.44281    1000.001       3.208
    38  11010.91    -897.80524    -893.53543    1000.001      -3.286
    39   9869.09    -897.23608    -893.40904    1000.001      -5.144
    40   7875.07    -896.42640    -893.37260    1000.001      -6.513
    41   6653.46    -895.94657    -893.36649    1000.001      -7.473
    42   6514.45    -895.89432    -893.36815    1000.001      -7.831
    43   7398.04    -896.24323    -893.37442    1000.001      -7.477
    44   9031.58    -896.89558    -893.39331    1000.001      -6.174
    45  10671.77    -897.57632    -893.43802    1000.001      -3.364
    46  10923.71    -897.71369    -893.47769    1000.001       1.360
    47   9285.59    -896.99297    -893.39220    1000.001       6.789
    48   8536.57    -896.60347    -893.29316    1000.001       9.242
    49  11057.52    -897.69180    -893.40392    1000.001       7.827
    50  13682.03    -898.87608    -893.57046    1000.001       6.955
    51  11611.96    -898.01414    -893.51125    1000.001       9.729
    52   9685.04    -897.03864    -893.28298    1000.001       8.636
    53  11564.67    -897.98920    -893.50465    1000.001       1.561
    54  11072.55    -897.68452    -893.39081    1000.001      -1.140
    55   9554.42    -897.06474    -893.35973    1000.001      -2.588
    56   8407.10    -896.61854    -893.35843    1000.001      -3.633
    57   7745.77    -896.36433    -893.36067    1000.001      -4.184
    58   7449.36    -896.25117    -893.36246    1000.001      -4.343
    59   7415.23    -896.23860    -893.36312    1000.001      -4.217
    60   7593.92    -896.30740    -893.36264    1000.001      -3.863
    61   7981.36    -896.45663    -893.36162    1000.001      -3.307
    62   8597.95    -896.69527    -893.36116    1000.001      -2.456
    63   9429.12    -897.02132    -893.36489    1000.001      -1.162
    64  10235.94    -897.35715    -893.38786    1000.001       0.964
    65  10093.53    -897.35616    -893.44209    1000.001       4.490
    66   8176.84    -896.52532    -893.35451    1000.001       8.848
    67   7551.31    -896.24361    -893.31536    1000.001       8.995
    68   8995.26    -896.89727    -893.40909    1000.001       5.276
    69   9445.59    -897.02147    -893.35866    1000.001       2.708
    70   9313.79    -896.95859    -893.34689    1000.001       0.666
    71   9463.79    -897.02991    -893.36004    1000.001      -0.918
    72  10002.98    -897.24482    -893.36586    1000.001      -1.838
    73  10767.02    -897.54789    -893.37265    1000.001      -2.133
    74  11565.71    -897.86210    -893.37714    1000.001      -1.824
    75  12307.09    -898.14490    -893.37246    1000.001      -0.969
    76  13183.88    -898.46948    -893.35703    1000.001       0.271
    77  14472.69    -898.98221    -893.36999    1000.001       1.932
    78  15645.33    -899.48074    -893.41380    1000.001       4.471
    79  15276.42    -899.37517    -893.45128    1000.001       8.425
    80  12628.59    -898.30461    -893.40749    1000.001      13.128
    81   9894.68    -897.17579    -893.33883    1000.001      14.462
    82  10215.19    -897.35112    -893.38988    1000.001       9.331
    83  11432.57    -897.91240    -893.47908    1000.001       2.404
    84  10140.11    -897.33504    -893.40291    1000.001      -1.663
    85   7573.28    -896.29460    -893.35783    1000.001      -4.359
    86   5251.14    -895.37340    -893.33711    1000.001      -6.330
    87   3724.02    -894.77326    -893.32916    1000.001      -7.637
    88   3089.19    -894.52445    -893.32653    1000.001      -8.383
    89   3333.00    -894.61600    -893.32353    1000.001      -8.645
    90   4431.90    -895.04120    -893.32260    1000.001      -8.243
    91   6219.31    -895.74699    -893.33527    1000.001      -6.934
    92   7933.82    -896.46157    -893.38499    1000.001      -4.118
    93   7990.67    -896.49098    -893.39236    1000.001       0.713
    94   7864.90    -896.23654    -893.18669    1000.001       4.118
    95  10513.54    -897.50515    -893.42821    1000.001       2.099
    96  10987.04    -897.70823    -893.44767    1000.001       2.549
    97   7823.73    -896.28569    -893.25181    1000.001       5.396
    98   6628.55    -895.81211    -893.24169    1000.001       4.054
    99   8519.43    -896.65481    -893.35115    1000.001       1.236
   100   9148.71    -897.00612    -893.45843    1000.001       3.037
   101   5751.64    -895.52132    -893.29095    1000.001       9.354
   102   7265.37    -896.18991    -893.37255    1000.001       7.555
   103  12175.49    -898.25651    -893.53510    1000.001       2.372
   104  10892.15    -897.63579    -893.41204    1000.001       4.002
   105   7361.43    -896.08270    -893.22809    1000.001       5.123
   106   6503.61    -895.86685    -893.34488    1000.001       1.231
   107   6407.13    -895.85463    -893.37008    1000.001      -2.879
   108   5100.66    -895.30638    -893.32845    1000.001      -5.059
   109   3587.96    -894.70210    -893.31076    1000.001      -6.570
   110   2593.83    -894.31111    -893.30527    1000.001      -7.602
   111   2346.29    -894.21120    -893.30135    1000.001      -8.133
   112   2923.38    -894.42749    -893.29387    1000.001      -8.155
   113   4389.39    -894.98696    -893.28484    1000.001      -7.613
   114   6764.87    -895.90641    -893.28313    1000.001      -6.201
   115   9721.78    -897.08466    -893.31474    1000.001      -3.250
   116  11681.10    -897.95349    -893.42379    1000.001       2.476
   117   9438.05    -897.12958    -893.46969    1000.001      11.492
   118   5729.99    -895.22750    -893.00553    1000.001      16.502
   119   8806.09    -896.90003    -893.48521    1000.001       7.772
   120  11003.69    -897.64965    -893.38264    1000.001       1.618
   121  10398.22    -897.31454    -893.28232    1000.001      -0.659
   122   9966.65    -897.17986    -893.31499    1000.001      -1.254
   123   8914.79    -896.94336    -893.48639    1000.001       1.602
   124   4564.14    -895.01072    -893.24084    1000.001       8.256
   125   6028.79    -895.78148    -893.44363    1000.001       5.216
   126  10684.74    -897.67299    -893.52966    1000.001      -0.359
   127  10510.10    -897.51069    -893.43509    1000.001       0.264
   128   7612.55    -896.36065    -893.40865    1000.001       2.481
   129   4651.03    -895.07031    -893.26673    1000.001       3.490
   130   4622.81    -895.19812    -893.40549    1000.001      -0.230
   131   4763.07    -895.25445    -893.40743    1000.001      -3.693
   132   3666.39    -894.78779    -893.36604    1000.001      -5.568
   133   2458.49    -894.30246    -893.34911    1000.001      -6.879
   134   1824.07    -894.05125    -893.34391    1000.001      -7.711
   135   1964.62    -894.10356    -893.34172    1000.001      -8.027
   136   2901.95    -894.46685    -893.34153    1000.001      -7.785
   137   4529.39    -895.10452    -893.34812    1000.001      -6.816
   138   6417.67    -895.86279    -893.37414    1000.001      -4.762
   139   7509.70    -896.32300    -893.41089    1000.001      -1.179
   140   7401.87    -896.18229    -893.31200    1000.001       2.943
   141   8891.87    -896.78367    -893.33558    1000.001       3.285
   142  11338.29    -897.82941    -893.43265    1000.001       1.793
   143  11546.98    -897.86257    -893.38488    1000.001       2.434
   144  10433.35    -897.35439    -893.30855    1000.001       2.876
   145   9684.74    -897.10606    -893.35051    1000.001       1.036
   146   8914.85    -896.81806    -893.36106    1000.001      -1.247
   147   7782.04    -896.35570    -893.33798    1000.001      -2.559
   148   6834.00    -895.98488    -893.33479    1000.001      -2.868
   149   6106.34    -895.72745    -893.35953    1000.001      -1.908
   150   4844.45    -895.25611    -893.37753    1000.001       0.495
   151   3396.45    -894.59516    -893.27808    1000.001       2.599
   152   4195.96    -894.97013    -893.34302    1000.001       0.817
   153   5982.92    -895.70144    -893.38138    1000.001      -1.991
   154   6922.70    -896.03320    -893.34871    1000.001      -3.231
   155   7630.05    -896.30030    -893.34152    1000.001      -3.347
   156   8367.37    -896.61410    -893.36940    1000.001      -2.101
   157   8380.99    -896.63230    -893.38232    1000.001       0.795
   158   8076.07    -896.39311    -893.26137    1000.001       3.373
   159   9420.57    -897.02271    -893.36960    1000.001       2.245
   160  10550.84    -897.51244    -893.42104    1000.001       1.185
   161   9280.75    -897.00917    -893.41028    1000.001       2.598
   162   6617.84    -895.84878    -893.28252    1000.001       4.318
   163   5920.92    -895.63223    -893.33622    1000.001       2.060
   164   6398.94    -895.87055    -893.38917    1000.001      -1.587
   165   5937.65    -895.65306    -893.35056    1000.001      -3.585
   166   5276.51    -895.37617    -893.33005    1000.001      -4.695
   167   5214.02    -895.34898    -893.32709    1000.001      -5.067
   168   5903.54    -895.62656    -893.33729    1000.001      -4.467
   169   6940.47    -896.05799    -893.36662    1000.001      -2.552
   170   7350.38    -896.24411    -893.39378    1000.001       0.975
   171   6943.62    -895.99727    -893.30467    1000.001       4.924
   172   7898.63    -896.39775    -893.33482    1000.001       5.659
   173   9585.69    -897.13973    -893.42259    1000.001       4.558
   174   9728.90    -897.13080    -893.35813    1000.001       3.862
   175   9201.20    -896.92318    -893.35514    1000.001       1.597
   176   8427.14    -896.63149    -893.36362    1000.001      -1.309
   177   7282.00    -896.16737    -893.34355    1000.001      -3.452
   178   6332.22    -895.78653    -893.33102    1000.001      -4.839
   179   6053.95    -895.67656    -893.32896    1000.001      -5.554
   180   6557.41    -895.87690    -893.33407    1000.001      -5.512
   181   7636.28    -896.31073    -893.34954    1000.001      -4.551
   182   8679.55    -896.74477    -893.37902    1000.001      -2.439
   183   8772.43    -896.79018    -893.38841    1000.001       0.699
   184   7916.88    -896.41296    -893.34296    1000.001       3.231
   185   7105.51    -896.12688    -893.37150    1000.001       3.199
   186   6346.55    -895.80968    -893.34861    1000.001       2.021
   187   6037.73    -895.67682    -893.33551    1000.001       0.560
   188   6427.81    -895.85052    -893.35795    1000.001      -0.906
   189   6846.75    -896.01943    -893.36440    1000.001      -1.685
   190   6919.76    -896.04229    -893.35895    1000.001      -1.872
   191   6756.74    -895.97007    -893.34994    1000.001      -2.018
   192   6609.29    -895.91219    -893.34924    1000.001      -2.570
   193   6572.31    -895.90043    -893.35182    1000.001      -3.413
   194   6670.06    -895.93505    -893.34854    1000.001      -4.156
   195   7063.14    -896.08126    -893.34231    1000.001      -4.507
   196   7953.72    -896.42718    -893.34288    1000.001      -4.189
   197   9183.84    -896.93749    -893.37618    1000.001      -2.582
   198   9301.08    -897.08516    -893.47839    1000.001       1.473
   199   6948.24    -895.96376    -893.26937    1000.001       7.745
   200   8347.57    -896.66456    -893.42753    1000.001       6.877
