# Step     T (K)     E_KS (eV)    E_tot (eV)   Vol (A^3)    P (kBar)
     1  10416.33    -898.13021    -894.09097    1000.001       6.276
     2  10807.87    -898.32931    -894.13823    1000.001       5.782
     3  11039.90    -898.42220    -894.14115    1000.001       4.859
     4  10674.73    -898.26111    -894.12167    1000.001       4.274
     5  10295.70    -898.10513    -894.11266    1000.001       3.884
     6  10288.77    -898.10192    -894.11214    1000.001       3.790
     7  10671.80    -898.25810    -894.11979    1000.001       4.142
     8  11103.55    -898.44400    -894.13827    1000.001       5.066
     9  10994.66    -898.40556    -894.14205    1000.001       6.407
    10  10594.79    -898.20394    -894.09549    1000.001       7.105
    11  10934.27    -898.37598    -894.13589    1000.001       6.033
    12  11201.18    -898.49171    -894.14812    1000.001       4.642
    13  10724.04    -898.28979    -894.13122    1000.001       3.864
    14   9963.37    -897.98708    -894.12349    1000.001       3.612
    15   9249.86    -897.71369    -894.12678    1000.001       4.010
    16   8505.38    -897.43723    -894.13901    1000.001       5.198
    17   7374.81    -897.01144    -894.15164    1000.001       7.125
    18   5685.73    -896.34102    -894.13621    1000.001       9.157
    19   4302.48    -895.76987    -894.10146    1000.001       9.805
    20   4489.03    -895.88147    -894.14072    1000.001       8.006
    21   5865.26    -896.47693    -894.20250    1000.001       5.366
    22   7255.59    -897.02365    -894.21007    1000.001       3.388
    23   8160.70    -897.37570    -894.21114    1000.001       1.966
    24   8531.99    -897.51886    -894.21032    1000.001       0.958
    25   8411.71    -897.47001    -894.20812    1000.001       0.212
    26   7879.54    -897.26063    -894.20510    1000.001      -0.372
    27   7042.14    -896.93241    -894.20161    1000.001      -0.841
    28   6031.00    -896.53621    -894.19750    1000.001      -1.221
    29   5006.53    -896.13307    -894.19164    1000.001      -1.515
    30   4184.97    -895.79498    -894.17213    1000.001      -1.660
    31   3817.63    -895.63963    -894.15923    1000.001      -1.671
    32   4095.47    -895.74987    -894.16173    1000.001      -1.521
    33   5005.47    -896.11661    -894.17559    1000.001      -0.990
    34   6291.39    -896.63289    -894.19321    1000.001       0.121
    35   7670.15    -897.16926    -894.19493    1000.001       1.903
    36   9233.60    -897.76273    -894.18213    1000.001       4.146
    37  11241.54    -898.57770    -894.21846    1000.001       6.902
    38  13453.91    -899.42669    -894.20953    1000.001      10.183
    39  15098.38    -900.27568    -894.42084    1000.001      11.768
    40  13403.69    -899.31738    -894.11970    1000.001      12.734
    41  13621.29    -899.65248    -894.37042    1000.001       5.925
    42  13219.42    -899.43676    -894.31053    1000.001      -0.277
    43  10182.15    -898.16890    -894.22047    1000.001      -3.145
    44   7186.09    -896.99068    -894.20406    1000.001      -5.442
    45   5046.89    -896.16411    -894.20703    1000.001      -7.152
    46   3708.13    -895.64889    -894.21095    1000.001      -8.287
    47   3014.67    -895.38197    -894.21294    1000.001      -9.003
    48   2878.29    -895.32947    -894.21333    1000.001      -9.389
    49   3283.02    -895.48537    -894.21228    1000.001      -9.500
    50   4274.78    -895.86762    -894.20995    1000.001      -9.301
    51   5952.92    -896.51567    -894.20725    1000.001      -8.690
    52   8417.99    -897.47399    -894.20966    1000.001      -7.409
    53  11514.13    -898.70346    -894.23851    1000.001      -4.886
    54  14039.56    -899.77511    -894.33085    1000.001      -0.052
    55  13670.64    -899.61402    -894.31282    1000.001       7.553
    56  12928.89    -899.10657    -894.09300    1000.001      11.673
    57  15398.74    -900.30750    -894.33618    1000.001       6.821
    58  15956.43    -900.53639    -894.34881    1000.001       2.021
    59  13014.25    -899.29361    -894.24695    1000.001      -0.156
    60   9345.73    -897.82187    -894.19778    1000.001      -1.436
    61   6812.58    -896.79710    -894.15531    1000.001      -2.242
    62   5568.59    -896.31997    -894.16059    1000.001      -2.730
    63   5050.82    -896.12463    -894.16602    1000.001      -2.892
    64   5018.81    -896.11780    -894.17161    1000.001      -2.721
    65   5572.16    -896.34283    -894.18205    1000.001      -2.114
    66   6795.32    -896.83800    -894.20291    1000.001      -0.791
    67   8262.35    -897.45444    -894.25047    1000.001       1.698
    68   8675.00    -897.64648    -894.28249    1000.001       5.775
    69   8496.27    -897.40515    -894.11047    1000.001       9.094
    70  10738.83    -898.42929    -894.26499    1000.001       6.996
    71  13079.00    -899.34487    -894.27309    1000.001       4.601
    72  13903.59    -899.63307    -894.24154    1000.001       4.127
    73  13901.40    -899.65366    -894.26297    1000.001       4.762
    74  12693.38    -899.18907    -894.26683    1000.001       6.416
    75  10743.08    -898.32309    -894.15714    1000.001       7.150
    76  10028.15    -898.09040    -894.20168    1000.001       4.459
    77  10097.33    -898.14796    -894.23242    1000.001       1.250
    78   9957.94    -898.08166    -894.22016    1000.001      -0.864
    79   9805.36    -898.01792    -894.21560    1000.001      -2.423
    80   9843.38    -898.02982    -894.21275    1000.001      -3.478
    81  10147.47    -898.14970    -894.21471    1000.001      -3.864
    82  10569.95    -898.33300    -894.23418    1000.001      -3.274
    83  10409.49    -898.30451    -894.26792    1000.001      -1.333
    84   9145.86    -897.74940    -894.20282    1000.001       1.255
    85   8540.56    -897.49905    -894.18719    1000.001       0.978
    86   8794.69    -897.68053    -894.27012    1000.001      -1.931
    87   7971.84    -897.32907    -894.23775    1000.001      -3.987
    88   6483.34    -896.72447    -894.21036    1000.001      -5.272
    89   5290.36    -896.24177    -894.19028    1000.001      -5.996
    90   4792.98    -896.02947    -894.17085    1000.001      -6.048
    91   4975.13    -896.09674    -894.16748    1000.001      -5.456
    92   5633.93    -896.35718    -894.17245    1000.001      -4.279
    93   6868.24    -896.83292    -894.16956    1000.001      -2.894
    94   9342.30    -897.81313    -894.19037    1000.001      -1.264
    95  12854.87    -899.27839    -894.29353    1000.001       1.892
    96  13658.05    -899.77341    -894.47709    1000.001       9.411
    97  11159.37    -898.29992    -893.97254    1000.001      17.030
    98  14330.43    -899.97834    -894.42129    1000.001       9.916
    99  16525.15    -900.80337    -894.39525    1000.001       2.379
   100  13613.71    -899.52388    -894.24476    1000.001      -0.794
   101   9810.43    -898.01013    -894.20584    1000.001      -3.381
   102   6864.13    -896.86450    -894.20273    1000.001      -5.255
   103   4971.92    -896.13375    -894.20574    1000.001      -6.367
   104   3982.69    -895.75471    -894.21030    1000.001      -6.858
   105   3696.85    -895.64800    -894.21444    1000.001      -6.884
   106   3942.48    -895.74605    -894.21724    1000.001      -6.530
   107   4601.95    -896.00378    -894.21924    1000.001      -5.842
   108   5602.98    -896.39324    -894.22052    1000.001      -4.807
   109   6916.12    -896.90240    -894.22046    1000.001      -3.399
   110   8596.42    -897.54951    -894.21599    1000.001      -1.604
   111  10833.59    -898.41680    -894.21575    1000.001       0.663
   112  13297.17    -899.45433    -894.29795    1000.001       4.308
   113  12833.06    -899.48039    -894.50399    1000.001      11.844
   114   8398.79    -897.20387    -893.94699    1000.001      21.231
   115  10648.00    -898.45238    -894.32329    1000.001      16.595
   116  14269.32    -899.93435    -894.40099    1000.001       9.553
   117  14026.61    -899.73513    -894.29589    1000.001       5.694
   118  11776.22    -898.81065    -894.24406    1000.001       2.789
   119   9351.91    -897.85803    -894.23155    1000.001       0.266
   120   7266.30    -897.04736    -894.22963    1000.001      -1.739
   121   5574.65    -896.39177    -894.23003    1000.001      -3.294
   122   4239.33    -895.87464    -894.23071    1000.001      -4.475
   123   3218.66    -895.47926    -894.23113    1000.001      -5.364
   124   2483.11    -895.19429    -894.23139    1000.001      -6.024
   125   2016.26    -895.01334    -894.23147    1000.001      -6.472
   126   1811.88    -894.93400    -894.23139    1000.001      -6.736
   127   1873.07    -894.95741    -894.23107    1000.001      -6.818
   128   2213.94    -895.08892    -894.23039    1000.001      -6.714
   129   2861.77    -895.33901    -894.22927    1000.001      -6.390
   130   3865.79    -895.72628    -894.22721    1000.001      -5.805
   131   5322.27    -896.28657    -894.22270    1000.001      -4.873
   132   7430.98    -897.09512    -894.21354    1000.001      -3.447
   133  10504.42    -898.28669    -894.21328    1000.001      -1.163
   134  14095.74    -899.79069    -894.32465    1000.001       3.045
   135  13861.84    -899.97717    -894.60182    1000.001      12.171
   136   8803.62    -897.51076    -894.09689    1000.001      23.106
   137   8414.38    -896.96342    -893.70050    1000.001      21.125
   138  14400.53    -900.01313    -894.42889    1000.001       7.572
   139  13204.02    -899.19804    -894.07779    1000.001       3.813
   140   9255.31    -897.58010    -893.99107    1000.001       1.495
   141   6462.60    -896.49077    -893.98470    1000.001      -0.774
   142   4823.92    -895.86853    -893.99791    1000.001      -2.525
   143   3773.11    -895.47511    -894.01197    1000.001      -3.739
   144   3068.62    -895.21390    -894.02395    1000.001      -4.628
   145   2612.53    -895.04460    -894.03151    1000.001      -5.283
   146   2364.70    -894.95213    -894.03514    1000.001      -5.732
   147   2310.80    -894.93268    -894.03659    1000.001      -6.009
   148   2448.70    -894.98657    -894.03701    1000.001      -6.138
   149   2784.58    -895.11674    -894.03694    1000.001      -6.110
   150   3331.66    -895.32853    -894.03658    1000.001      -5.925
   151   4110.41    -895.63001    -894.03608    1000.001      -5.561
   152   5147.98    -896.03194    -894.03566    1000.001      -4.977
   153   6470.34    -896.54548    -894.03641    1000.001      -4.098
   154   8065.79    -897.16933    -894.04158    1000.001      -2.797
   155   9749.06    -897.83986    -894.05937    1000.001      -0.790
   156  10978.40    -898.33540    -894.07819    1000.001       2.225
   157  11642.70    -898.52855    -894.01375    1000.001       5.416
   158  13071.61    -899.09959    -894.03068    1000.001       6.085
   159  15039.57    -899.91535    -894.08331    1000.001       5.261
   160  16001.49    -900.32944    -894.12438    1000.001       6.074
   161  13752.22    -899.62375    -894.29091    1000.001      10.294
   162   8603.86    -897.00133    -893.66492    1000.001      15.614
   163  10477.78    -898.37331    -894.31023    1000.001       7.627
   164  11392.87    -898.58078    -894.16285    1000.001       2.524
   165   9527.69    -897.77050    -894.07585    1000.001       0.303
   166   8033.68    -897.17769    -894.06239    1000.001      -1.673
   167   7620.81    -897.02311    -894.06792    1000.001      -2.880
   168   8112.30    -897.22814    -894.08235    1000.001      -3.130
   169   8929.76    -897.57608    -894.11330    1000.001      -2.188
   170   8969.84    -897.62808    -894.14976    1000.001       0.213
   171   7889.23    -897.09984    -894.04055    1000.001       2.817
   172   8178.09    -897.25081    -894.07951    1000.001       1.285
   173   9229.72    -897.73242    -894.15332    1000.001      -2.383
   174   8861.70    -897.54095    -894.10456    1000.001      -4.538
   175   8022.79    -897.18711    -894.07603    1000.001      -5.913
   176   7793.34    -897.08854    -894.06643    1000.001      -6.763
   177   8590.52    -897.39845    -894.06722    1000.001      -6.905
   178  10346.85    -898.10656    -894.09426    1000.001      -5.950
   179  11814.97    -898.79124    -894.20963    1000.001      -2.850
   180   9816.09    -898.01403    -894.20755    1000.001       3.743
   181   9533.69    -897.55629    -893.85932    1000.001       5.713
   182  14605.78    -899.89495    -894.23112    1000.001      -0.401
   183  15756.11    -900.21848    -894.10857    1000.001      -0.499
   184  13904.38    -899.46495    -894.07311    1000.001       1.364
   185  11345.03    -898.36051    -893.96114    1000.001       2.752
   186  10427.26    -898.07385    -894.03036    1000.001       0.786
   187  10084.29    -897.98176    -894.07127    1000.001      -2.007
   188   8806.28    -897.45553    -894.04063    1000.001      -3.511
   189   7209.31    -896.81963    -894.02400    1000.001      -4.354
   190   5888.26    -896.30158    -894.01823    1000.001      -4.740
   191   4999.11    -895.94857    -894.01002    1000.001      -4.663
   192   4517.38    -895.75041    -893.99866    1000.001      -4.176
   193   4386.08    -895.68871    -893.98788    1000.001      -3.363
   194   4576.23    -895.75391    -893.97934    1000.001      -2.273
   195   5113.62    -895.95781    -893.97485    1000.001      -0.900
   196   6074.93    -896.33324    -893.97751    1000.001       0.816
   197   7501.18    -896.90421    -893.99540    1000.001       3.070
   198   9123.39    -897.58941    -894.05154    1000.001       6.232
   199  10047.82    -897.96795    -894.07160    1000.001      10.739
   200  11202.37    -898.26213    -893.91808    1000.001      14.156
