# Step     T (K)     E_KS (eV)    E_tot (eV)   Vol (A^3)    P (kBar)
     1   7442.89    -898.12780    -895.24159    1000.001       5.384
     2   7843.39    -898.32943    -895.28792    1000.001       4.539
     3   8091.61    -898.42869    -895.29093    1000.001       3.266
     4   7746.83    -898.27559    -895.27153    1000.001       2.365
     5   7384.67    -898.12622    -895.26259    1000.001       1.719
     6   7383.90    -898.12555    -895.26222    1000.001       1.454
     7   7758.48    -898.27874    -895.27016    1000.001       1.725
     8   8167.64    -898.45589    -895.28865    1000.001       2.661
     9   8027.71    -898.40477    -895.29179    1000.001       4.117
    10   7607.95    -898.19458    -895.24437    1000.001       4.974
    11   7956.63    -898.36929    -895.28387    1000.001       4.079
    12   8280.55    -898.50583    -895.29479    1000.001       2.846
    13   7950.89    -898.35938    -895.27619    1000.001       2.106
    14   7473.30    -898.16553    -895.26753    1000.001       1.755
    15   7230.87    -898.07232    -895.26833    1000.001       1.932
    16   7221.38    -898.07770    -895.27740    1000.001       2.788
    17   7069.33    -898.03956    -895.29822    1000.001       4.464
    18   6120.09    -897.68018    -895.30693    1000.001       6.908
    19   4524.38    -897.01102    -895.25656    1000.001       9.099
    20   3541.14    -896.65401    -895.28083    1000.001       9.528
    21   2922.13    -896.41867    -895.28552    1000.001       8.947
    22   2246.37    -896.14337    -895.27227    1000.001       7.872
    23   1808.44    -895.97657    -895.27529    1000.001       6.461
    24   1675.14    -895.93083    -895.28124    1000.001       5.141
    25   1782.34    -895.97568    -895.28452    1000.001       4.048
    26   2109.95    -896.10211    -895.28391    1000.001       3.150
    27   2695.33    -896.32455    -895.27936    1000.001       2.435
    28   3623.15    -896.67756    -895.27258    1000.001       1.950
    29   4969.97    -897.19869    -895.27144    1000.001       1.839
    30   6518.43    -897.82749    -895.29978    1000.001       2.421
    31   6988.01    -898.08682    -895.37701    1000.001       4.216
    32   5543.62    -897.33505    -895.18534    1000.001       6.352
    33   6641.04    -897.94736    -895.37210    1000.001       3.833
    34   7846.72    -898.40438    -895.36158    1000.001       1.168
    35   7040.67    -898.03297    -895.30274    1000.001      -0.047
    36   5994.21    -897.61100    -895.28656    1000.001      -1.092
    37   5495.50    -897.41457    -895.28352    1000.001      -1.696
    38   5714.10    -897.49969    -895.28388    1000.001      -1.702
    39   6609.83    -897.85489    -895.29173    1000.001      -0.987
    40   7744.88    -898.33361    -895.33030    1000.001       0.748
    41   7586.16    -898.34358    -895.40182    1000.001       3.891
    42   5883.43    -897.45020    -895.16872    1000.001       6.860
    43   7079.95    -898.15035    -895.40488    1000.001       4.684
    44   7807.73    -898.39342    -895.36574    1000.001       2.933
    45   6780.23    -897.94331    -895.31407    1000.001       2.229
    46   5740.37    -897.52743    -895.30143    1000.001       1.508
    47   5342.44    -897.37136    -895.29967    1000.001       1.050
    48   5700.14    -897.51169    -895.30129    1000.001       0.991
    49   6710.66    -897.91540    -895.31314    1000.001       1.495
    50   7753.49    -898.36952    -895.36287    1000.001       2.942
    51   7104.48    -898.16411    -895.40913    1000.001       5.621
    52   5810.11    -897.41887    -895.16582    1000.001       6.986
    53   7456.11    -898.29782    -895.40649    1000.001       3.513
    54   7675.66    -898.31391    -895.33745    1000.001       1.473
    55   6526.88    -897.82806    -895.29707    1000.001       0.138
    56   5584.54    -897.45395    -895.28838    1000.001      -1.027
    57   5324.24    -897.35199    -895.28736    1000.001      -1.711
    58   5810.90    -897.54314    -895.28979    1000.001      -1.783
    59   6889.95    -897.97789    -895.30610    1000.001      -1.045
    60   7748.27    -898.37206    -895.36743    1000.001       0.916
    61   6599.48    -897.92600    -895.36685    1000.001       4.154
    62   5864.69    -897.47158    -895.19736    1000.001       4.992
    63   7690.13    -898.36099    -895.37891    1000.001       1.996
    64   7523.82    -898.21845    -895.30086    1000.001       0.926
    65   6361.86    -897.73639    -895.26939    1000.001       0.266
    66   5558.87    -897.41914    -895.26352    1000.001      -0.176
    67   5457.26    -897.37937    -895.26315    1000.001      -0.157
    68   6081.28    -897.62462    -895.26643    1000.001       0.406
    69   7221.89    -898.08790    -895.28739    1000.001       1.707
    70   7879.55    -898.41379    -895.35826    1000.001       4.157
    71   6348.19    -897.76302    -895.30132    1000.001       7.538
    72   6117.86    -897.61857    -895.24619    1000.001       7.286
    73   7844.38    -898.40055    -895.35866    1000.001       4.096
    74   7375.75    -898.14195    -895.28179    1000.001       2.705
    75   6206.04    -897.66299    -895.25642    1000.001       1.413
    76   5495.75    -897.38336    -895.25221    1000.001       0.299
    77   5506.10    -897.38742    -895.25226    1000.001      -0.375
    78   6234.07    -897.67422    -895.25678    1000.001      -0.470
    79   7407.87    -898.15526    -895.28264    1000.001       0.290
    80   7847.31    -898.40288    -895.35985    1000.001       2.387
    81   6087.50    -897.60269    -895.24208    1000.001       5.321
    82   6329.66    -897.76152    -895.30700    1000.001       3.996
    83   7802.50    -898.38466    -895.35901    1000.001       1.038
    84   7101.86    -898.04267    -895.28871    1000.001      -0.096
    85   5952.24    -897.57619    -895.26803    1000.001      -1.053
    86   5343.59    -897.33689    -895.26475    1000.001      -1.649
    87   5482.48    -897.39130    -895.26531    1000.001      -1.684
    88   6337.62    -897.72907    -895.27147    1000.001      -1.045
    89   7549.93    -898.23151    -895.30379    1000.001       0.546
    90   7738.33    -898.38294    -895.38217    1000.001       3.518
    91   5956.50    -897.50558    -895.19577    1000.001       6.854
    92   6755.83    -897.99310    -895.37333    1000.001       5.252
    93   7871.30    -898.42220    -895.36987    1000.001       3.132
    94   6988.65    -898.01933    -895.30927    1000.001       2.375
    95   5898.30    -897.58030    -895.29306    1000.001       1.592
    96   5407.05    -897.38733    -895.29059    1000.001       1.035
    97   5671.56    -897.49092    -895.29160    1000.001       0.868
    98   6626.44    -897.87007    -895.30046    1000.001       1.238
    99   7787.03    -898.36100    -895.34134    1000.001       2.483
   100   7570.09    -898.34467    -895.40914    1000.001       4.998
   101   5973.28    -897.48511    -895.16879    1000.001       7.088
   102   7283.24    -898.23772    -895.41342    1000.001       4.186
   103   7854.49    -898.41103    -895.36522    1000.001       2.096
   104   6728.40    -897.92531    -895.31617    1000.001       1.060
   105   5602.34    -897.47845    -895.30597    1000.001       0.173
   106   5032.67    -897.25911    -895.30754    1000.001      -0.249
   107   5026.73    -897.26348    -895.31422    1000.001      -0.090
   108   5380.33    -897.41453    -895.32815    1000.001       0.728
   109   5660.07    -897.54682    -895.35196    1000.001       2.316
   110   5223.49    -897.39494    -895.36938    1000.001       4.610
   111   3980.41    -896.87413    -895.33061    1000.001       6.810
   112   3262.79    -896.58314    -895.31789    1000.001       7.369
   113   3625.15    -896.76376    -895.35800    1000.001       6.586
   114   4197.65    -896.98581    -895.35805    1000.001       5.733
   115   4734.31    -897.19488    -895.35901    1000.001       4.653
   116   5128.43    -897.35012    -895.36141    1000.001       3.376
   117   5157.79    -897.35206    -895.35197    1000.001       2.206
   118   4855.22    -897.22058    -895.33783    1000.001       1.210
   119   4430.68    -897.04373    -895.32560    1000.001       0.346
   120   4093.61    -896.90372    -895.31629    1000.001      -0.381
   121   4019.70    -896.86745    -895.30869    1000.001      -0.950
   122   4387.59    -897.00329    -895.30187    1000.001      -1.279
   123   5387.48    -897.38853    -895.29937    1000.001      -1.202
   124   7000.22    -898.03949    -895.32495    1000.001      -0.308
   125   7864.45    -898.51124    -895.46157    1000.001       2.295
   126   4672.88    -897.14023    -895.32818    1000.001       6.913
   127   5271.51    -897.58094    -895.53676    1000.001       4.657
   128   7684.43    -898.49605    -895.51618    1000.001       0.971
   129   6452.84    -897.91465    -895.41237    1000.001       0.247
   130   4803.84    -897.25647    -895.39363    1000.001      -0.784
   131   3796.64    -896.86493    -895.39267    1000.001      -1.522
   132   3547.39    -896.76836    -895.39276    1000.001      -1.806
   133   4061.34    -896.96683    -895.39192    1000.001      -1.645
   134   5339.81    -897.46717    -895.39650    1000.001      -0.927
   135   7047.16    -898.17248    -895.43973    1000.001       0.770
   136   7094.84    -898.35078    -895.59955    1000.001       4.316
   137   3753.31    -896.58990    -895.13444    1000.001       8.753
   138   6197.14    -898.11197    -895.70884    1000.001       4.039
   139   7070.90    -898.30943    -895.56747    1000.001       1.853
   140   5505.24    -897.63950    -895.50468    1000.001       0.865
   141   4105.94    -897.08770    -895.49550    1000.001      -0.325
   142   3449.88    -896.83328    -895.49549    1000.001      -1.163
   143   3583.82    -896.88510    -895.49537    1000.001      -1.568
   144   4505.22    -897.24366    -895.49663    1000.001      -1.476
   145   6082.41    -897.87475    -895.51611    1000.001      -0.613
   146   7233.40    -898.42370    -895.61873    1000.001       1.707
   147   4838.90    -897.50389    -895.62746    1000.001       5.988
   148   4278.97    -897.10386    -895.44456    1000.001       5.714
   149   7333.55    -898.42004    -895.57624    1000.001       1.118
   150   6457.19    -897.95197    -895.44800    1000.001       0.222
   151   4764.17    -897.26896    -895.42151    1000.001      -0.895
   152   3675.98    -896.84507    -895.41960    1000.001      -1.791
   153   3377.52    -896.72973    -895.42000    1000.001      -2.205
   154   3868.14    -896.91956    -895.41957    1000.001      -2.135
   155   5136.55    -897.41575    -895.42390    1000.001      -1.473
   156   6861.03    -898.12500    -895.46443    1000.001       0.183
   157   7060.23    -898.35670    -895.61889    1000.001       3.683
   158   3747.82    -896.66074    -895.20741    1000.001       8.263
   159   5908.42    -898.03835    -895.74718    1000.001       4.035
   160   6999.23    -898.33469    -895.62053    1000.001       1.788
   161   5508.63    -897.68942    -895.55329    1000.001       0.975
   162   4106.85    -897.13525    -895.54270    1000.001      -0.066
   163   3437.73    -896.87550    -895.54242    1000.001      -0.783
   164   3563.22    -896.92409    -895.54235    1000.001      -1.089
   165   4478.56    -897.28061    -895.54391    1000.001      -0.923
   166   6037.51    -897.90546    -895.56424    1000.001      -0.012
   167   7131.59    -898.43213    -895.66664    1000.001       2.315
   168   4755.18    -897.50210    -895.65814    1000.001       6.486
   169   4311.96    -897.18814    -895.51605    1000.001       5.982
   170   7205.16    -898.43082    -895.63680    1000.001       1.469
   171   6345.60    -897.97505    -895.51436    1000.001       0.422
   172   4699.57    -897.31054    -895.48814    1000.001      -0.818
   173   3649.16    -896.90104    -895.48597    1000.001      -1.832
   174   3386.46    -896.79942    -895.48622    1000.001      -2.365
   175   3916.16    -897.00466    -895.48605    1000.001      -2.394
   176   5213.01    -897.51363    -895.49213    1000.001      -1.784
   177   6866.61    -898.20270    -895.53997    1000.001      -0.094
   178   6678.96    -898.28179    -895.69182    1000.001       3.508
   179   3652.41    -896.61431    -895.19798    1000.001       7.576
   180   6306.56    -898.18484    -895.73928    1000.001       2.893
   181   6937.94    -898.28664    -895.59625    1000.001       1.126
   182   5377.53    -897.62505    -895.53975    1000.001       0.337
   183   4047.63    -897.10128    -895.53169    1000.001      -0.572
   184   3463.94    -896.87489    -895.53164    1000.001      -1.103
   185   3668.76    -896.95413    -895.53146    1000.001      -1.204
   186   4656.29    -897.33914    -895.53352    1000.001      -0.818
   187   6247.56    -897.98039    -895.55771    1000.001       0.345
   188   7158.35    -898.44785    -895.67198    1000.001       2.991
   189   4433.97    -897.31109    -895.59168    1000.001       7.349
   190   4577.31    -897.41192    -895.63694    1000.001       5.900
   191   7139.62    -898.44999    -895.68139    1000.001       1.848
   192   6156.43    -897.96069    -895.57335    1000.001       0.813
   193   4595.11    -897.33300    -895.55111    1000.001      -0.470
   194   3652.20    -896.96554    -895.54929    1000.001      -1.510
   195   3492.36    -896.90368    -895.54941    1000.001      -2.080
   196   4121.73    -897.14797    -895.54965    1000.001      -2.140
   197   5484.68    -897.68635    -895.55950    1000.001      -1.511
   198   6973.67    -898.32813    -895.62388    1000.001       0.323
   199   5974.77    -898.07411    -895.75721    1000.001       4.136
   200   3629.29    -896.61378    -895.20641    1000.001       6.944
